PE IR                   SPECTRUM    ASCII       PEDS        1.60        
  -1
GRAFEN~1.ASC
18/01/16
16:28:27.00
18/01/17
15:26:15.00
Admin

650.000000
4









SPECTRUM ONE,CPU32 MAIN 00.02.6000 25-JUNE-2003 12:00:00
MIR TGS
MIR
OPTKBR
72299
0.200000

4.000000
STRONG
RATIO
SPECTRUM
MAGNITUDE
UNIVERSAL ATR
DOUBLE

COMBINED


0


#HDR
-1
-1
#GR
CM-1
%T
0.00002384185791015625
0.0
4000.000000
-1.000000
3351
8
101.256384
100.289001
#DATA
4000.000000	101.255857 
3999.000000	101.256077 
3998.000000	101.256259 
3997.000000	101.256384 
3996.000000	101.256346 
3995.000000	101.255934 
3994.000000	101.255098 
3993.000000	101.253436 
3992.000000	101.252361 
3991.000000	101.251488 
3990.000000	101.250734 
3989.000000	101.249991 
3988.000000	101.249210 
3987.000000	101.248368 
3986.000000	101.247478 
3985.000000	101.246598 
3984.000000	101.245717 
3983.000000	101.244757 
3982.000000	101.243610 
3981.000000	101.242251 
3980.000000	101.240737 
3979.000000	101.239152 
3978.000000	101.237520 
3977.000000	101.235802 
3976.000000	101.234025 
3975.000000	101.232231 
3974.000000	101.230405 
3973.000000	101.228529 
3972.000000	101.226597 
3971.000000	101.224590 
3970.000000	101.222493 
3969.000000	101.220308 
3968.000000	101.218019 
3967.000000	101.215612 
3966.000000	101.213113 
3965.000000	101.210512 
3964.000000	101.207807 
3963.000000	101.205031 
3962.000000	101.202203 
3961.000000	101.199329 
3960.000000	101.196418 
3959.000000	101.193478 
3958.000000	101.190512 
3957.000000	101.187522 
3956.000000	101.184501 
3955.000000	101.181458 
3954.000000	101.178401 
3953.000000	101.175335 
3952.000000	101.172257 
3951.000000	101.169145 
3950.000000	101.165964 
3949.000000	101.162669 
3948.000000	101.159241 
3947.000000	101.155679 
3946.000000	101.151954 
3945.000000	101.148084 
3944.000000	101.144586 
3943.000000	101.141638 
3942.000000	101.138196 
3941.000000	101.133525 
3940.000000	101.128591 
3939.000000	101.124399 
3938.000000	101.120252 
3937.000000	101.114988 
3936.000000	101.108850 
3935.000000	101.103425 
3934.000000	101.099797 
3933.000000	101.097449 
3932.000000	101.094770 
3931.000000	101.090466 
3930.000000	101.084790 
3929.000000	101.078927 
3928.000000	101.073955 
3927.000000	101.070171 
3926.000000	101.066439 
3925.000000	101.060742 
3924.000000	101.052600 
3923.000000	101.044254 
3922.000000	101.038171 
3921.000000	101.034240 
3920.000000	101.031229 
3919.000000	101.028921 
3918.000000	101.027379 
3917.000000	101.025514 
3916.000000	101.022047 
3915.000000	101.017363 
3914.000000	101.012837 
3913.000000	101.008829 
3912.000000	101.004312 
3911.000000	100.998494 
3910.000000	100.991211 
3909.000000	100.982995 
3908.000000	100.974540 
3907.000000	100.966550 
3906.000000	100.959461 
3905.000000	100.953273 
3904.000000	100.947770 
3903.000000	100.943261 
3902.000000	100.940275 
3901.000000	100.938240 
3900.000000	100.935828 
3899.000000	100.932543 
3898.000000	100.928808 
3897.000000	100.924903 
3896.000000	100.920876 
3895.000000	100.916782 
3894.000000	100.912619 
3893.000000	100.908375 
3892.000000	100.904090 
3891.000000	100.899829 
3890.000000	100.895668 
3889.000000	100.891701 
3888.000000	100.887989 
3887.000000	100.884490 
3886.000000	100.881103 
3885.000000	100.877754 
3884.000000	100.874459 
3883.000000	100.871296 
3882.000000	100.868313 
3881.000000	100.865435 
3880.000000	100.862534 
3879.000000	100.859566 
3878.000000	100.856563 
3877.000000	100.853577 
3876.000000	100.850633 
3875.000000	100.847735 
3874.000000	100.844918 
3873.000000	100.842268 
3872.000000	100.839858 
3871.000000	100.837686 
3870.000000	100.835689 
3869.000000	100.833835 
3868.000000	100.832190 
3867.000000	100.830795 
3866.000000	100.829562 
3865.000000	100.828342 
3864.000000	100.827042 
3863.000000	100.825629 
3862.000000	100.824066 
3861.000000	100.822304 
3860.000000	100.820339 
3859.000000	100.818200 
3858.000000	100.815860 
3857.000000	100.813284 
3856.000000	100.810819 
3855.000000	100.809424 
3854.000000	100.809667 
3853.000000	100.810364 
3852.000000	100.810768 
3851.000000	100.812355 
3850.000000	100.815418 
3849.000000	100.818632 
3848.000000	100.820991 
3847.000000	100.822419 
3846.000000	100.823201 
3845.000000	100.823608 
3844.000000	100.823731 
3843.000000	100.823671 
3842.000000	100.823681 
3841.000000	100.824099 
3840.000000	100.825061 
3839.000000	100.826425 
3838.000000	100.827936 
3837.000000	100.829559 
3836.000000	100.831408 
3835.000000	100.833517 
3834.000000	100.835844 
3833.000000	100.838365 
3832.000000	100.841045 
3831.000000	100.843838 
3830.000000	100.846711 
3829.000000	100.849656 
3828.000000	100.852674 
3827.000000	100.855755 
3826.000000	100.858858 
3825.000000	100.861971 
3824.000000	100.865171 
3823.000000	100.868578 
3822.000000	100.872258 
3821.000000	100.876176 
3820.000000	100.880320 
3819.000000	100.884803 
3818.000000	100.889706 
3817.000000	100.894914 
3816.000000	100.900163 
3815.000000	100.905237 
3814.000000	100.910070 
3813.000000	100.914640 
3812.000000	100.918858 
3811.000000	100.922650 
3810.000000	100.926037 
3809.000000	100.929097 
3808.000000	100.931883 
3807.000000	100.934454 
3806.000000	100.936951 
3805.000000	100.939575 
3804.000000	100.942493 
3803.000000	100.945733 
3802.000000	100.949181 
3801.000000	100.952678 
3800.000000	100.956161 
3799.000000	100.959645 
3798.000000	100.963061 
3797.000000	100.966230 
3796.000000	100.968994 
3795.000000	100.971295 
3794.000000	100.973204 
3793.000000	100.974853 
3792.000000	100.976342 
3791.000000	100.977540 
3790.000000	100.978143 
3789.000000	100.977951 
3788.000000	100.977120 
3787.000000	100.976011 
3786.000000	100.974880 
3785.000000	100.973091 
3784.000000	100.969625 
3783.000000	100.964883 
3782.000000	100.960759 
3781.000000	100.958533 
3780.000000	100.957211 
3779.000000	100.954471 
3778.000000	100.949897 
3777.000000	100.946234 
3776.000000	100.944582 
3775.000000	100.941673 
3774.000000	100.934723 
3773.000000	100.925475 
3772.000000	100.917909 
3771.000000	100.912653 
3770.000000	100.905887 
3769.000000	100.895922 
3768.000000	100.887254 
3767.000000	100.884150 
3766.000000	100.883690 
3765.000000	100.879724 
3764.000000	100.871030 
3763.000000	100.862088 
3762.000000	100.856051 
3761.000000	100.851292 
3760.000000	100.845372 
3759.000000	100.837661 
3758.000000	100.828413 
3757.000000	100.818229 
3756.000000	100.807477 
3755.000000	100.796786 
3754.000000	100.786809 
3753.000000	100.779188 
3752.000000	100.776094 
3751.000000	100.775580 
3750.000000	100.771494 
3749.000000	100.763182 
3748.000000	100.756750 
3747.000000	100.756295 
3746.000000	100.761164 
3745.000000	100.766810 
3744.000000	100.766095 
3743.000000	100.760591 
3742.000000	100.760717 
3741.000000	100.766911 
3740.000000	100.770198 
3739.000000	100.767304 
3738.000000	100.762073 
3737.000000	100.759451 
3736.000000	100.760448 
3735.000000	100.763151 
3734.000000	100.767222 
3733.000000	100.773551 
3732.000000	100.780404 
3731.000000	100.785562 
3730.000000	100.790205 
3729.000000	100.796248 
3728.000000	100.802731 
3727.000000	100.807034 
3726.000000	100.807854 
3725.000000	100.807174 
3724.000000	100.808916 
3723.000000	100.814252 
3722.000000	100.821227 
3721.000000	100.828052 
3720.000000	100.834616 
3719.000000	100.840692 
3718.000000	100.844211 
3717.000000	100.843250 
3716.000000	100.838485 
3715.000000	100.832754 
3714.000000	100.828955 
3713.000000	100.828985 
3712.000000	100.832520 
3711.000000	100.836194 
3710.000000	100.838746 
3709.000000	100.842519 
3708.000000	100.848286 
3707.000000	100.854133 
3706.000000	100.858263 
3705.000000	100.860771 
3704.000000	100.862877 
3703.000000	100.865491 
3702.000000	100.867802 
3701.000000	100.868247 
3700.000000	100.867856 
3699.000000	100.869173 
3698.000000	100.871839 
3697.000000	100.872640 
3696.000000	100.869681 
3695.000000	100.864324 
3694.000000	100.858845 
3693.000000	100.854197 
3692.000000	100.850878 
3691.000000	100.850083 
3690.000000	100.851940 
3689.000000	100.853661 
3688.000000	100.852884 
3687.000000	100.852050 
3686.000000	100.854492 
3685.000000	100.858747 
3684.000000	100.860731 
3683.000000	100.859035 
3682.000000	100.854987 
3681.000000	100.849322 
3680.000000	100.840784 
3679.000000	100.829310 
3678.000000	100.819407 
3677.000000	100.816864 
3676.000000	100.820400 
3675.000000	100.818694 
3674.000000	100.810228 
3673.000000	100.807976 
3672.000000	100.815572 
3671.000000	100.826258 
3670.000000	100.832522 
3669.000000	100.830864 
3668.000000	100.827658 
3667.000000	100.831202 
3666.000000	100.839755 
3665.000000	100.847360 
3664.000000	100.851600 
3663.000000	100.852851 
3662.000000	100.851145 
3661.000000	100.845740 
3660.000000	100.837171 
3659.000000	100.828571 
3658.000000	100.823579 
3657.000000	100.821603 
3656.000000	100.816967 
3655.000000	100.806957 
3654.000000	100.797041 
3653.000000	100.790733 
3652.000000	100.785867 
3651.000000	100.782919 
3650.000000	100.784137 
3649.000000	100.786478 
3648.000000	100.788194 
3647.000000	100.793107 
3646.000000	100.803359 
3645.000000	100.816981 
3644.000000	100.830055 
3643.000000	100.839098 
3642.000000	100.842866 
3641.000000	100.843120 
3640.000000	100.842943 
3639.000000	100.843913 
3638.000000	100.845154 
3637.000000	100.846008 
3636.000000	100.846704 
3635.000000	100.845575 
3634.000000	100.839488 
3633.000000	100.828440 
3632.000000	100.817652 
3631.000000	100.813391 
3630.000000	100.818187 
3629.000000	100.826058 
3628.000000	100.827330 
3627.000000	100.827424 
3626.000000	100.834703 
3625.000000	100.844265 
3624.000000	100.848947 
3623.000000	100.849041 
3622.000000	100.848560 
3621.000000	100.850332 
3620.000000	100.853851 
3619.000000	100.856247 
3618.000000	100.856111 
3617.000000	100.855605 
3616.000000	100.857193 
3615.000000	100.860902 
3614.000000	100.865262 
3613.000000	100.868989 
3612.000000	100.872272 
3611.000000	100.876315 
3610.000000	100.881493 
3609.000000	100.886778 
3608.000000	100.890936 
3607.000000	100.893858 
3606.000000	100.896608 
3605.000000	100.899976 
3604.000000	100.903637 
3603.000000	100.907051 
3602.000000	100.910043 
3601.000000	100.912360 
3600.000000	100.913719 
3599.000000	100.914551 
3598.000000	100.915838 
3597.000000	100.918110 
3596.000000	100.921346 
3595.000000	100.924784 
3594.000000	100.927018 
3593.000000	100.926869 
3592.000000	100.924703 
3591.000000	100.922036 
3590.000000	100.921263 
3589.000000	100.924813 
3588.000000	100.931914 
3587.000000	100.936895 
3586.000000	100.938388 
3585.000000	100.942454 
3584.000000	100.951925 
3583.000000	100.963176 
3582.000000	100.972382 
3581.000000	100.978865 
3580.000000	100.983588 
3579.000000	100.987649 
3578.000000	100.991922 
3577.000000	100.996635 
3576.000000	101.001357 
3575.000000	101.004953 
3574.000000	101.005916 
3573.000000	101.002498 
3572.000000	100.993771 
3571.000000	100.980968 
3570.000000	100.968461 
3569.000000	100.962438 
3568.000000	100.965567 
3567.000000	100.972840 
3566.000000	100.977579 
3565.000000	100.982096 
3564.000000	100.990574 
3563.000000	101.000810 
3562.000000	101.009122 
3561.000000	101.015395 
3560.000000	101.021176 
3559.000000	101.026509 
3558.000000	101.029853 
3557.000000	101.030024 
3556.000000	101.027583 
3555.000000	101.024707 
3554.000000	101.023240 
3553.000000	101.022865 
3552.000000	101.021864 
3551.000000	101.020277 
3550.000000	101.020355 
3549.000000	101.023202 
3548.000000	101.027153 
3547.000000	101.029875 
3546.000000	101.030696 
3545.000000	101.030940 
3544.000000	101.032433 
3543.000000	101.035579 
3542.000000	101.039218 
3541.000000	101.042150 
3540.000000	101.044241 
3539.000000	101.046208 
3538.000000	101.048528 
3537.000000	101.050928 
3536.000000	101.052799 
3535.000000	101.054075 
3534.000000	101.055259 
3533.000000	101.056539 
3532.000000	101.057461 
3531.000000	101.057428 
3530.000000	101.056395 
3529.000000	101.054932 
3528.000000	101.053980 
3527.000000	101.054288 
3526.000000	101.055983 
3525.000000	101.058252 
3524.000000	101.060029 
3523.000000	101.060898 
3522.000000	101.061134 
3521.000000	101.061298 
3520.000000	101.061784 
3519.000000	101.062572 
3518.000000	101.063420 
3517.000000	101.064127 
3516.000000	101.064675 
3515.000000	101.065150 
3514.000000	101.065639 
3513.000000	101.066197 
3512.000000	101.066825 
3511.000000	101.067482 
3510.000000	101.068108 
3509.000000	101.068667 
3508.000000	101.069160 
3507.000000	101.069622 
3506.000000	101.070104 
3505.000000	101.070629 
3504.000000	101.071187 
3503.000000	101.071726 
3502.000000	101.072199 
3501.000000	101.072612 
3500.000000	101.073010 
3499.000000	101.073443 
3498.000000	101.073932 
3497.000000	101.074464 
3496.000000	101.075007 
3495.000000	101.075545 
3494.000000	101.076082 
3493.000000	101.076612 
3492.000000	101.077100 
3491.000000	101.077516 
3490.000000	101.077911 
3489.000000	101.078440 
3488.000000	101.079261 
3487.000000	101.080369 
3486.000000	101.081518 
3485.000000	101.082419 
3484.000000	101.082955 
3483.000000	101.083257 
3482.000000	101.083569 
3481.000000	101.084029 
3480.000000	101.084652 
3479.000000	101.085389 
3478.000000	101.086183 
3477.000000	101.087030 
3476.000000	101.088001 
3475.000000	101.089182 
3474.000000	101.090548 
3473.000000	101.091834 
3472.000000	101.092576 
3471.000000	101.092443 
3470.000000	101.091527 
3469.000000	101.090370 
3468.000000	101.089548 
3467.000000	101.089228 
3466.000000	101.089299 
3465.000000	101.089714 
3464.000000	101.090490 
3463.000000	101.091467 
3462.000000	101.092259 
3461.000000	101.092593 
3460.000000	101.092568 
3459.000000	101.092502 
3458.000000	101.092542 
3457.000000	101.092529 
3456.000000	101.092267 
3455.000000	101.091825 
3454.000000	101.091503 
3453.000000	101.091477 
3452.000000	101.091597 
3451.000000	101.091575 
3450.000000	101.091310 
3449.000000	101.090908 
3448.000000	101.090501 
3447.000000	101.090156 
3446.000000	101.089953 
3445.000000	101.089944 
3444.000000	101.089978 
3443.000000	101.089755 
3442.000000	101.089186 
3441.000000	101.088597 
3440.000000	101.088407 
3439.000000	101.088702 
3438.000000	101.089197 
3437.000000	101.089486 
3436.000000	101.089431 
3435.000000	101.089117 
3434.000000	101.088650 
3433.000000	101.088056 
3432.000000	101.087371 
3431.000000	101.086728 
3430.000000	101.086285 
3429.000000	101.086087 
3428.000000	101.086028 
3427.000000	101.085930 
3426.000000	101.085673 
3425.000000	101.085253 
3424.000000	101.084739 
3423.000000	101.084216 
3422.000000	101.083754 
3421.000000	101.083414 
3420.000000	101.083251 
3419.000000	101.083278 
3418.000000	101.083426 
3417.000000	101.083567 
3416.000000	101.083600 
3415.000000	101.083492 
3414.000000	101.083250 
3413.000000	101.082878 
3412.000000	101.082418 
3411.000000	101.081966 
3410.000000	101.081623 
3409.000000	101.081421 
3408.000000	101.081281 
3407.000000	101.081065 
3406.000000	101.080684 
3405.000000	101.080148 
3404.000000	101.079517 
3403.000000	101.078858 
3402.000000	101.078220 
3401.000000	101.077659 
3400.000000	101.077261 
3399.000000	101.077089 
3398.000000	101.077080 
3397.000000	101.077008 
3396.000000	101.076624 
3395.000000	101.075853 
3394.000000	101.074828 
3393.000000	101.073840 
3392.000000	101.073160 
3391.000000	101.072907 
3390.000000	101.073043 
3389.000000	101.073364 
3388.000000	101.073575 
3387.000000	101.073482 
3386.000000	101.073087 
3385.000000	101.072572 
3384.000000	101.072174 
3383.000000	101.072028 
3382.000000	101.072090 
3381.000000	101.072164 
3380.000000	101.072049 
3379.000000	101.071669 
3378.000000	101.071107 
3377.000000	101.070472 
3376.000000	101.069785 
3375.000000	101.069021 
3374.000000	101.068271 
3373.000000	101.067697 
3372.000000	101.067263 
3371.000000	101.066599 
3370.000000	101.065379 
3369.000000	101.063865 
3368.000000	101.062846 
3367.000000	101.062817 
3366.000000	101.063487 
3365.000000	101.064078 
3364.000000	101.064152 
3363.000000	101.063891 
3362.000000	101.063695 
3361.000000	101.063801 
3360.000000	101.064266 
3359.000000	101.065049 
3358.000000	101.065937 
3357.000000	101.066516 
3356.000000	101.066485 
3355.000000	101.066018 
3354.000000	101.065710 
3353.000000	101.065990 
3352.000000	101.066603 
3351.000000	101.066796 
3350.000000	101.066058 
3349.000000	101.064546 
3348.000000	101.062970 
3347.000000	101.062016 
3346.000000	101.061852 
3345.000000	101.062196 
3344.000000	101.062618 
3343.000000	101.062853 
3342.000000	101.062872 
3341.000000	101.062749 
3340.000000	101.062535 
3339.000000	101.062226 
3338.000000	101.061790 
3337.000000	101.061197 
3336.000000	101.060467 
3335.000000	101.059716 
3334.000000	101.059127 
3333.000000	101.058876 
3332.000000	101.059077 
3331.000000	101.059757 
3330.000000	101.060793 
3329.000000	101.061845 
3328.000000	101.062469 
3327.000000	101.062456 
3326.000000	101.062062 
3325.000000	101.061811 
3324.000000	101.061980 
3323.000000	101.062328 
3322.000000	101.062436 
3321.000000	101.062238 
3320.000000	101.062072 
3319.000000	101.062209 
3318.000000	101.062527 
3317.000000	101.062773 
3316.000000	101.062911 
3315.000000	101.063031 
3314.000000	101.063072 
3313.000000	101.062941 
3312.000000	101.062846 
3311.000000	101.063161 
3310.000000	101.063840 
3309.000000	101.064236 
3308.000000	101.063714 
3307.000000	101.062276 
3306.000000	101.060530 
3305.000000	101.059096 
3304.000000	101.058237 
3303.000000	101.057946 
3302.000000	101.058078 
3301.000000	101.058333 
3300.000000	101.058264 
3299.000000	101.057555 
3298.000000	101.056448 
3297.000000	101.055788 
3296.000000	101.056368 
3295.000000	101.058237 
3294.000000	101.060551 
3293.000000	101.062242 
3292.000000	101.062979 
3291.000000	101.063194 
3290.000000	101.063356 
3289.000000	101.063378 
3288.000000	101.062886 
3287.000000	101.061780 
3286.000000	101.060257 
3285.000000	101.058561 
3284.000000	101.056984 
3283.000000	101.055908 
3282.000000	101.055612 
3281.000000	101.056044 
3280.000000	101.056840 
3279.000000	101.057589 
3278.000000	101.058035 
3277.000000	101.058156 
3276.000000	101.058151 
3275.000000	101.058279 
3274.000000	101.058610 
3273.000000	101.059006 
3272.000000	101.059360 
3271.000000	101.059657 
3270.000000	101.059735 
3269.000000	101.059226 
3268.000000	101.057959 
3267.000000	101.056293 
3266.000000	101.054865 
3265.000000	101.054047 
3264.000000	101.053871 
3263.000000	101.054324 
3262.000000	101.055333 
3261.000000	101.056460 
3260.000000	101.057039 
3259.000000	101.056849 
3258.000000	101.056362 
3257.000000	101.056222 
3256.000000	101.056553 
3255.000000	101.057008 
3254.000000	101.057308 
3253.000000	101.057479 
3252.000000	101.057624 
3251.000000	101.057650 
3250.000000	101.057255 
3249.000000	101.056172 
3248.000000	101.054489 
3247.000000	101.052835 
3246.000000	101.052097 
3245.000000	101.052713 
3244.000000	101.054250 
3243.000000	101.055707 
3242.000000	101.056470 
3241.000000	101.056648 
3240.000000	101.056520 
3239.000000	101.055951 
3238.000000	101.054616 
3237.000000	101.052647 
3236.000000	101.050773 
3235.000000	101.049667 
3234.000000	101.049194 
3233.000000	101.048476 
3232.000000	101.046838 
3231.000000	101.044642 
3230.000000	101.042968 
3229.000000	101.042366 
3228.000000	101.042273 
3227.000000	101.041788 
3226.000000	101.040833 
3225.000000	101.040083 
3224.000000	101.039949 
3223.000000	101.040212 
3222.000000	101.040578 
3221.000000	101.041127 
3220.000000	101.041969 
3219.000000	101.042764 
3218.000000	101.042953 
3217.000000	101.042368 
3216.000000	101.041365 
3215.000000	101.040423 
3214.000000	101.039731 
3213.000000	101.039198 
3212.000000	101.038751 
3211.000000	101.038565 
3210.000000	101.038920 
3209.000000	101.039840 
3208.000000	101.040916 
3207.000000	101.041555 
3206.000000	101.041330 
3205.000000	101.040115 
3204.000000	101.038095 
3203.000000	101.035860 
3202.000000	101.034262 
3201.000000	101.033720 
3200.000000	101.033817 
3199.000000	101.033730 
3198.000000	101.033127 
3197.000000	101.032396 
3196.000000	101.031918 
3195.000000	101.031468 
3194.000000	101.030599 
3193.000000	101.029422 
3192.000000	101.028620 
3191.000000	101.028639 
3190.000000	101.029269 
3189.000000	101.029993 
3188.000000	101.030534 
3187.000000	101.030872 
3186.000000	101.030906 
3185.000000	101.030391 
3184.000000	101.029204 
3183.000000	101.027613 
3182.000000	101.026224 
3181.000000	101.025575 
3180.000000	101.025805 
3179.000000	101.026670 
3178.000000	101.027774 
3177.000000	101.028796 
3176.000000	101.029510 
3175.000000	101.029773 
3174.000000	101.029657 
3173.000000	101.029529 
3172.000000	101.029720 
3171.000000	101.030079 
3170.000000	101.030055 
3169.000000	101.029349 
3168.000000	101.028323 
3167.000000	101.027670 
3166.000000	101.027663 
3165.000000	101.027912 
3164.000000	101.027805 
3163.000000	101.027064 
3162.000000	101.025879 
3161.000000	101.024682 
3160.000000	101.023835 
3159.000000	101.023466 
3158.000000	101.023465 
3157.000000	101.023557 
3156.000000	101.023490 
3155.000000	101.023217 
3154.000000	101.022907 
3153.000000	101.022777 
3152.000000	101.022890 
3151.000000	101.023113 
3150.000000	101.023210 
3149.000000	101.023024 
3148.000000	101.022582 
3147.000000	101.022076 
3146.000000	101.021717 
3145.000000	101.021576 
3144.000000	101.021581 
3143.000000	101.021600 
3142.000000	101.021493 
3141.000000	101.021143 
3140.000000	101.020514 
3139.000000	101.019695 
3138.000000	101.018878 
3137.000000	101.018208 
3136.000000	101.017666 
3135.000000	101.017155 
3134.000000	101.016687 
3133.000000	101.016408 
3132.000000	101.016393 
3131.000000	101.016489 
3130.000000	101.016422 
3129.000000	101.016065 
3128.000000	101.015508 
3127.000000	101.014971 
3126.000000	101.014614 
3125.000000	101.014408 
3124.000000	101.014204 
3123.000000	101.013914 
3122.000000	101.013635 
3121.000000	101.013551 
3120.000000	101.013728 
3119.000000	101.014074 
3118.000000	101.014431 
3117.000000	101.014663 
3116.000000	101.014691 
3115.000000	101.014533 
3114.000000	101.014331 
3113.000000	101.014286 
3112.000000	101.014517 
3111.000000	101.014990 
3110.000000	101.015534 
3109.000000	101.015924 
3108.000000	101.015975 
3107.000000	101.015626 
3106.000000	101.014984 
3105.000000	101.014275 
3104.000000	101.013730 
3103.000000	101.013515 
3102.000000	101.013659 
3101.000000	101.013979 
3100.000000	101.014153 
3099.000000	101.013989 
3098.000000	101.013616 
3097.000000	101.013430 
3096.000000	101.013760 
3095.000000	101.014579 
3094.000000	101.015480 
3093.000000	101.015969 
3092.000000	101.015845 
3091.000000	101.015324 
3090.000000	101.014888 
3089.000000	101.014916 
3088.000000	101.015491 
3087.000000	101.016502 
3086.000000	101.017774 
3085.000000	101.019041 
3084.000000	101.019828 
3083.000000	101.019647 
3082.000000	101.018501 
3081.000000	101.016963 
3080.000000	101.015786 
3079.000000	101.015396 
3078.000000	101.015647 
3077.000000	101.016011 
3076.000000	101.016045 
3075.000000	101.015635 
3074.000000	101.014850 
3073.000000	101.013711 
3072.000000	101.012271 
3071.000000	101.010877 
3070.000000	101.010044 
3069.000000	101.009801 
3068.000000	101.009458 
3067.000000	101.008451 
3066.000000	101.007169 
3065.000000	101.006363 
3064.000000	101.006014 
3063.000000	101.005380 
3062.000000	101.004083 
3061.000000	101.002614 
3060.000000	101.001721 
3059.000000	101.001652 
3058.000000	101.002016 
3057.000000	101.002108 
3056.000000	101.001453 
3055.000000	101.000211 
3054.000000	100.998884 
3053.000000	100.997355 
3052.000000	100.994683 
3051.000000	100.990405 
3050.000000	100.985478 
3049.000000	100.981139 
3048.000000	100.977221 
3047.000000	100.972681 
3046.000000	100.967913 
3045.000000	100.965394 
3044.000000	100.967286 
3043.000000	100.972849 
3042.000000	100.978623 
3041.000000	100.981111 
3040.000000	100.978838 
3039.000000	100.972310 
3038.000000	100.963289 
3037.000000	100.954310 
3036.000000	100.947925 
3035.000000	100.945317 
3034.000000	100.945434 
3033.000000	100.946011 
3032.000000	100.945643 
3031.000000	100.944375 
3030.000000	100.942059 
3029.000000	100.936956 
3028.000000	100.927214 
3027.000000	100.913468 
3026.000000	100.898992 
3025.000000	100.887632 
3024.000000	100.880681 
3023.000000	100.875612 
3022.000000	100.868529 
3021.000000	100.857730 
3020.000000	100.845385 
3019.000000	100.835531 
3018.000000	100.830227 
3017.000000	100.827468 
3016.000000	100.822670 
3015.000000	100.812610 
3014.000000	100.798446 
3013.000000	100.785064 
3012.000000	100.776657 
3011.000000	100.772366 
3010.000000	100.766772 
3009.000000	100.755294 
3008.000000	100.738667 
3007.000000	100.721491 
3006.000000	100.706688 
3005.000000	100.692907 
3004.000000	100.677908 
3003.000000	100.662677 
3002.000000	100.650243 
3001.000000	100.641091 
3000.000000	100.632115 
2999.000000	100.620697 
2998.000000	100.608135 
2997.000000	100.597791 
2996.000000	100.590820 
2995.000000	100.585103 
2994.000000	100.578216 
2993.000000	100.570324 
2992.000000	100.563818 
2991.000000	100.560692 
2990.000000	100.560396 
2989.000000	100.559492 
2988.000000	100.552655 
2987.000000	100.534419 
2986.000000	100.501738 
2985.000000	100.457576 
2984.000000	100.413260 
2983.000000	100.384356 
2982.000000	100.381224 
2981.000000	100.402906 
2980.000000	100.437641 
2979.000000	100.470778 
2978.000000	100.494775 
2977.000000	100.510581 
2976.000000	100.521883 
2975.000000	100.530581 
2974.000000	100.536924 
2973.000000	100.541471 
2972.000000	100.545232 
2971.000000	100.548059 
2970.000000	100.548008 
2969.000000	100.543368 
2968.000000	100.535651 
2967.000000	100.529963 
2966.000000	100.531332 
2965.000000	100.540426 
2964.000000	100.553447 
2963.000000	100.566363 
2962.000000	100.578544 
2961.000000	100.591501 
2960.000000	100.605017 
2959.000000	100.616137 
2958.000000	100.622235 
2957.000000	100.624133 
2956.000000	100.625629 
2955.000000	100.630307 
2954.000000	100.638880 
2953.000000	100.649181 
2952.000000	100.658420 
2951.000000	100.665696 
2950.000000	100.672555 
2949.000000	100.680958 
2948.000000	100.690751 
2947.000000	100.699441 
2946.000000	100.704625 
2945.000000	100.706413 
2944.000000	100.707503 
2943.000000	100.710910 
2942.000000	100.717422 
2941.000000	100.725330 
2940.000000	100.732367 
2939.000000	100.738050 
2938.000000	100.744212 
2937.000000	100.752696 
2936.000000	100.762881 
2935.000000	100.771914 
2934.000000	100.777822 
2933.000000	100.781934 
2932.000000	100.787683 
2931.000000	100.796815 
2930.000000	100.806918 
2929.000000	100.813670 
2928.000000	100.816019 
2927.000000	100.818250 
2926.000000	100.825624 
2925.000000	100.837963 
2924.000000	100.849285 
2923.000000	100.854047 
2922.000000	100.851613 
2921.000000	100.844704 
2920.000000	100.836519 
2919.000000	100.830211 
2918.000000	100.828147 
2917.000000	100.829184 
2916.000000	100.828176 
2915.000000	100.820708 
2914.000000	100.807677 
2913.000000	100.793787 
2912.000000	100.782421 
2911.000000	100.773904 
2910.000000	100.768137 
2909.000000	100.766075 
2908.000000	100.767666 
2907.000000	100.770069 
2906.000000	100.769300 
2905.000000	100.763247 
2904.000000	100.752704 
2903.000000	100.740729 
2902.000000	100.731106 
2901.000000	100.726035 
2900.000000	100.723763 
2899.000000	100.719865 
2898.000000	100.712035 
2897.000000	100.703104 
2896.000000	100.698402 
2895.000000	100.699742 
2894.000000	100.703180 
2893.000000	100.702783 
2892.000000	100.696007 
2891.000000	100.685106 
2890.000000	100.674406 
2889.000000	100.666833 
2888.000000	100.662746 
2887.000000	100.660625 
2886.000000	100.657707 
2885.000000	100.650640 
2884.000000	100.637654 
2883.000000	100.621471 
2882.000000	100.608802 
2881.000000	100.604611 
2880.000000	100.607084 
2879.000000	100.609170 
2878.000000	100.605791 
2877.000000	100.598102 
2876.000000	100.589849 
2875.000000	100.581994 
2874.000000	100.572907 
2873.000000	100.562565 
2872.000000	100.553923 
2871.000000	100.549965 
2870.000000	100.551211 
2869.000000	100.556087 
2868.000000	100.562212 
2867.000000	100.567445 
2866.000000	100.571290 
2865.000000	100.575590 
2864.000000	100.582487 
2863.000000	100.591292 
2862.000000	100.598667 
2861.000000	100.602743 
2860.000000	100.606004 
2859.000000	100.612884 
2858.000000	100.625025 
2857.000000	100.639493 
2856.000000	100.651117 
2855.000000	100.656645 
2854.000000	100.657480 
2853.000000	100.658996 
2852.000000	100.666370 
2851.000000	100.680221 
2850.000000	100.696163 
2849.000000	100.708598 
2848.000000	100.715218 
2847.000000	100.717898 
2846.000000	100.720287 
2845.000000	100.724721 
2844.000000	100.730697 
2843.000000	100.736047 
2842.000000	100.739831 
2841.000000	100.743971 
2840.000000	100.751250 
2839.000000	100.761796 
2838.000000	100.772646 
2837.000000	100.780929 
2836.000000	100.786138 
2835.000000	100.788996 
2834.000000	100.790073 
2833.000000	100.790615 
2832.000000	100.793277 
2831.000000	100.800032 
2830.000000	100.809828 
2829.000000	100.819624 
2828.000000	100.827630 
2827.000000	100.834449 
2826.000000	100.841144 
2825.000000	100.847616 
2824.000000	100.853310 
2823.000000	100.858434 
2822.000000	100.863545 
2821.000000	100.868247 
2820.000000	100.871274 
2819.000000	100.872043 
2818.000000	100.871751 
2817.000000	100.872767 
2816.000000	100.876782 
2815.000000	100.883573 
2814.000000	100.891249 
2813.000000	100.897953 
2812.000000	100.903500 
2811.000000	100.908936 
2810.000000	100.914592 
2809.000000	100.919428 
2808.000000	100.922681 
2807.000000	100.925080 
2806.000000	100.927803 
2805.000000	100.931188 
2804.000000	100.935202 
2803.000000	100.940207 
2802.000000	100.946102 
2801.000000	100.951387 
2800.000000	100.954502 
2799.000000	100.955677 
2798.000000	100.956295 
2797.000000	100.956697 
2796.000000	100.955922 
2795.000000	100.953490 
2794.000000	100.950153 
2793.000000	100.946938 
2792.000000	100.944477 
2791.000000	100.943375 
2790.000000	100.944145 
2789.000000	100.946592 
2788.000000	100.950044 
2787.000000	100.954202 
2786.000000	100.958843 
2785.000000	100.962650 
2784.000000	100.963742 
2783.000000	100.961706 
2782.000000	100.958291 
2781.000000	100.955893 
2780.000000	100.955477 
2779.000000	100.956657 
2778.000000	100.958893 
2777.000000	100.961723 
2776.000000	100.964274 
2775.000000	100.965602 
2774.000000	100.965641 
2773.000000	100.965242 
2772.000000	100.965141 
2771.000000	100.965272 
2770.000000	100.965278 
2769.000000	100.965160 
2768.000000	100.965167 
2767.000000	100.965406 
2766.000000	100.965834 
2765.000000	100.966406 
2764.000000	100.967033 
2763.000000	100.967531 
2762.000000	100.967804 
2761.000000	100.967968 
2760.000000	100.968203 
2759.000000	100.968542 
2758.000000	100.968909 
2757.000000	100.969269 
2756.000000	100.969626 
2755.000000	100.969985 
2754.000000	100.970344 
2753.000000	100.970705 
2752.000000	100.971069 
2751.000000	100.971437 
2750.000000	100.971807 
2749.000000	100.972178 
2748.000000	100.972545 
2747.000000	100.972904 
2746.000000	100.973255 
2745.000000	100.973600 
2744.000000	100.973943 
2743.000000	100.974296 
2742.000000	100.974664 
2741.000000	100.975031 
2740.000000	100.975388 
2739.000000	100.975759 
2738.000000	100.976134 
2737.000000	100.976480 
2736.000000	100.976790 
2735.000000	100.977071 
2734.000000	100.977338 
2733.000000	100.977594 
2732.000000	100.977819 
2731.000000	100.978003 
2730.000000	100.978158 
2729.000000	100.978287 
2728.000000	100.978397 
2727.000000	100.978501 
2726.000000	100.978608 
2725.000000	100.978719 
2724.000000	100.978816 
2723.000000	100.978872 
2722.000000	100.978865 
2721.000000	100.978812 
2720.000000	100.978777 
2719.000000	100.978822 
2718.000000	100.978950 
2717.000000	100.979080 
2716.000000	100.979124 
2715.000000	100.979055 
2714.000000	100.978882 
2713.000000	100.978594 
2712.000000	100.978218 
2711.000000	100.977879 
2710.000000	100.977689 
2709.000000	100.977591 
2708.000000	100.977411 
2707.000000	100.977076 
2706.000000	100.976672 
2705.000000	100.976308 
2704.000000	100.975999 
2703.000000	100.975720 
2702.000000	100.975498 
2701.000000	100.975379 
2700.000000	100.975328 
2699.000000	100.975220 
2698.000000	100.974954 
2697.000000	100.974542 
2696.000000	100.974107 
2695.000000	100.973758 
2694.000000	100.973482 
2693.000000	100.973173 
2692.000000	100.972714 
2691.000000	100.972050 
2690.000000	100.971239 
2689.000000	100.970490 
2688.000000	100.970007 
2687.000000	100.969826 
2686.000000	100.969793 
2685.000000	100.969759 
2684.000000	100.969748 
2683.000000	100.969830 
2682.000000	100.969916 
2681.000000	100.969777 
2680.000000	100.969303 
2679.000000	100.968623 
2678.000000	100.967938 
2677.000000	100.967362 
2676.000000	100.966956 
2675.000000	100.966781 
2674.000000	100.966843 
2673.000000	100.967043 
2672.000000	100.967283 
2671.000000	100.967549 
2670.000000	100.967793 
2669.000000	100.967799 
2668.000000	100.967389 
2667.000000	100.966790 
2666.000000	100.966529 
2665.000000	100.966834 
2664.000000	100.967333 
2663.000000	100.967459 
2662.000000	100.967090 
2661.000000	100.966545 
2660.000000	100.966116 
2659.000000	100.965866 
2658.000000	100.965877 
2657.000000	100.966298 
2656.000000	100.967042 
2655.000000	100.967658 
2654.000000	100.967666 
2653.000000	100.966993 
2652.000000	100.966061 
2651.000000	100.965462 
2650.000000	100.965519 
2649.000000	100.966164 
2648.000000	100.967190 
2647.000000	100.968559 
2646.000000	100.970327 
2645.000000	100.972294 
2644.000000	100.973940 
2643.000000	100.974804 
2642.000000	100.974801 
2641.000000	100.974181 
2640.000000	100.973393 
2639.000000	100.972986 
2638.000000	100.973418 
2637.000000	100.974729 
2636.000000	100.976441 
2635.000000	100.977970 
2634.000000	100.979164 
2633.000000	100.980267 
2632.000000	100.981392 
2631.000000	100.982234 
2630.000000	100.982402 
2629.000000	100.981856 
2628.000000	100.980954 
2627.000000	100.980137 
2626.000000	100.979625 
2625.000000	100.979305 
2624.000000	100.978951 
2623.000000	100.978628 
2622.000000	100.978794 
2621.000000	100.979761 
2620.000000	100.981185 
2619.000000	100.982228 
2618.000000	100.982409 
2617.000000	100.982097 
2616.000000	100.982120 
2615.000000	100.982988 
2614.000000	100.984584 
2613.000000	100.986360 
2612.000000	100.987750 
2611.000000	100.988531 
2610.000000	100.988887 
2609.000000	100.989132 
2608.000000	100.989378 
2607.000000	100.989513 
2606.000000	100.989496 
2605.000000	100.989561 
2604.000000	100.990016 
2603.000000	100.990798 
2602.000000	100.991411 
2601.000000	100.991440 
2600.000000	100.991066 
2599.000000	100.990931 
2598.000000	100.991389 
2597.000000	100.992087 
2596.000000	100.992367 
2595.000000	100.991956 
2594.000000	100.991174 
2593.000000	100.990606 
2592.000000	100.990804 
2591.000000	100.992157 
2590.000000	100.994724 
2589.000000	100.998010 
2588.000000	101.001054 
2587.000000	101.003082 
2586.000000	101.004066 
2585.000000	101.004631 
2584.000000	101.005403 
2583.000000	101.006385 
2582.000000	101.007124 
2581.000000	101.007496 
2580.000000	101.008066 
2579.000000	101.009359 
2578.000000	101.010912 
2577.000000	101.011579 
2576.000000	101.010869 
2575.000000	101.009549 
2574.000000	101.008710 
2573.000000	101.008546 
2572.000000	101.008574 
2571.000000	101.008713 
2570.000000	101.009629 
2569.000000	101.011968 
2568.000000	101.015665 
2567.000000	101.019824 
2566.000000	101.023088 
2565.000000	101.024612 
2564.000000	101.024923 
2563.000000	101.025707 
2562.000000	101.027942 
2561.000000	101.030497 
2560.000000	101.031560 
2559.000000	101.030982 
2558.000000	101.030285 
2557.000000	101.030550 
2556.000000	101.031280 
2555.000000	101.031659 
2554.000000	101.031608 
2553.000000	101.031283 
2552.000000	101.030598 
2551.000000	101.029740 
2550.000000	101.029404 
2549.000000	101.030001 
2548.000000	101.031096 
2547.000000	101.031963 
2546.000000	101.032377 
2545.000000	101.032460 
2544.000000	101.032180 
2543.000000	101.031536 
2542.000000	101.031018 
2541.000000	101.031286 
2540.000000	101.032388 
2539.000000	101.033609 
2538.000000	101.034211 
2537.000000	101.034118 
2536.000000	101.033791 
2535.000000	101.033704 
2534.000000	101.034029 
2533.000000	101.034652 
2532.000000	101.035350 
2531.000000	101.036022 
2530.000000	101.036750 
2529.000000	101.037594 
2528.000000	101.038380 
2527.000000	101.038844 
2526.000000	101.038976 
2525.000000	101.039092 
2524.000000	101.039448 
2523.000000	101.039913 
2522.000000	101.040132 
2521.000000	101.039923 
2520.000000	101.039387 
2519.000000	101.038798 
2518.000000	101.038479 
2517.000000	101.038651 
2516.000000	101.039313 
2515.000000	101.040134 
2514.000000	101.040606 
2513.000000	101.040457 
2512.000000	101.039828 
2511.000000	101.039099 
2510.000000	101.038516 
2509.000000	101.038118 
2508.000000	101.037981 
2507.000000	101.038337 
2506.000000	101.039337 
2505.000000	101.040853 
2504.000000	101.042608 
2503.000000	101.044324 
2502.000000	101.045666 
2501.000000	101.046213 
2500.000000	101.045794 
2499.000000	101.044871 
2498.000000	101.044265 
2497.000000	101.044334 
2496.000000	101.044697 
2495.000000	101.044725 
2494.000000	101.044122 
2493.000000	101.043023 
2492.000000	101.041819 
2491.000000	101.040973 
2490.000000	101.040796 
2489.000000	101.041248 
2488.000000	101.041987 
2487.000000	101.042652 
2486.000000	101.043061 
2485.000000	101.043130 
2484.000000	101.042802 
2483.000000	101.042140 
2482.000000	101.041313 
2481.000000	101.040451 
2480.000000	101.039728 
2479.000000	101.039577 
2478.000000	101.040372 
2477.000000	101.041700 
2476.000000	101.042398 
2475.000000	101.041889 
2474.000000	101.041104 
2473.000000	101.041452 
2472.000000	101.043113 
2471.000000	101.044975 
2470.000000	101.046089 
2469.000000	101.046671 
2468.000000	101.047326 
2467.000000	101.048079 
2466.000000	101.048650 
2465.000000	101.049124 
2464.000000	101.049722 
2463.000000	101.050215 
2462.000000	101.050223 
2461.000000	101.049985 
2460.000000	101.050163 
2459.000000	101.050749 
2458.000000	101.050787 
2457.000000	101.049493 
2456.000000	101.047183 
2455.000000	101.045019 
2454.000000	101.043854 
2453.000000	101.043710 
2452.000000	101.044346 
2451.000000	101.045708 
2450.000000	101.047629 
2449.000000	101.049530 
2448.000000	101.050871 
2447.000000	101.051731 
2446.000000	101.052586 
2445.000000	101.053574 
2444.000000	101.054293 
2443.000000	101.054361 
2442.000000	101.053857 
2441.000000	101.053138 
2440.000000	101.052472 
2439.000000	101.051957 
2438.000000	101.051600 
2437.000000	101.051321 
2436.000000	101.051022 
2435.000000	101.050769 
2434.000000	101.050803 
2433.000000	101.051217 
2432.000000	101.051715 
2431.000000	101.051844 
2430.000000	101.051469 
2429.000000	101.050905 
2428.000000	101.050576 
2427.000000	101.050600 
2426.000000	101.050771 
2425.000000	101.050749 
2424.000000	101.050346 
2423.000000	101.049606 
2422.000000	101.048708 
2421.000000	101.047853 
2420.000000	101.047179 
2419.000000	101.046735 
2418.000000	101.046493 
2417.000000	101.046332 
2416.000000	101.046093 
2415.000000	101.045664 
2414.000000	101.045061 
2413.000000	101.044423 
2412.000000	101.043851 
2411.000000	101.043332 
2410.000000	101.042784 
2409.000000	101.042159 
2408.000000	101.041469 
2407.000000	101.040750 
2406.000000	101.040030 
2405.000000	101.039333 
2404.000000	101.038657 
2403.000000	101.037986 
2402.000000	101.037314 
2401.000000	101.036654 
2400.000000	101.036023 
2399.000000	101.035437 
2398.000000	101.034895 
2397.000000	101.034385 
2396.000000	101.033905 
2395.000000	101.033452 
2394.000000	101.033039 
2393.000000	101.032655 
2392.000000	101.032265 
2391.000000	101.031850 
2390.000000	101.031400 
2389.000000	101.030913 
2388.000000	101.030387 
2387.000000	101.029820 
2386.000000	101.029217 
2385.000000	101.028591 
2384.000000	101.027962 
2383.000000	101.027353 
2382.000000	101.026792 
2381.000000	101.026301 
2380.000000	101.025872 
2379.000000	101.025491 
2378.000000	101.025146 
2377.000000	101.024839 
2376.000000	101.024563 
2375.000000	101.024291 
2374.000000	101.024005 
2373.000000	101.023754 
2372.000000	101.023642 
2371.000000	101.023696 
2370.000000	101.023736 
2369.000000	101.023503 
2368.000000	101.022961 
2367.000000	101.022469 
2366.000000	101.022444 
2365.000000	101.022928 
2364.000000	101.023440 
2363.000000	101.023427 
2362.000000	101.022773 
2361.000000	101.022014 
2360.000000	101.021913 
2359.000000	101.022880 
2358.000000	101.024641 
2357.000000	101.026128 
2356.000000	101.026480 
2355.000000	101.026088 
2354.000000	101.026396 
2353.000000	101.027883 
2352.000000	101.028966 
2351.000000	101.027979 
2350.000000	101.024838 
2349.000000	101.020919 
2348.000000	101.017577 
2347.000000	101.015129 
2346.000000	101.013739 
2345.000000	101.013671 
2344.000000	101.014937 
2343.000000	101.017019 
2342.000000	101.020116 
2341.000000	101.024516 
2340.000000	101.028958 
2339.000000	101.031721 
2338.000000	101.032169 
2337.000000	101.031075 
2336.000000	101.029564 
2335.000000	101.028880 
2334.000000	101.029739 
2333.000000	101.031986 
2332.000000	101.033911 
2331.000000	101.034195 
2330.000000	101.032297 
2329.000000	101.028807 
2328.000000	101.024502 
2327.000000	101.020529 
2326.000000	101.018457 
2325.000000	101.018959 
2324.000000	101.021180 
2323.000000	101.022687 
2322.000000	101.021731 
2321.000000	101.018898 
2320.000000	101.016260 
2319.000000	101.015418 
2318.000000	101.015577 
2317.000000	101.015206 
2316.000000	101.013533 
2315.000000	101.012045 
2314.000000	101.012134 
2313.000000	101.013665 
2312.000000	101.014356 
2311.000000	101.012739 
2310.000000	101.009146 
2309.000000	101.005395 
2308.000000	101.002485 
2307.000000	101.000582 
2306.000000	100.999283 
2305.000000	100.998353 
2304.000000	100.997272 
2303.000000	100.995644 
2302.000000	100.993190 
2301.000000	100.990280 
2300.000000	100.987311 
2299.000000	100.984624 
2298.000000	100.982095 
2297.000000	100.979507 
2296.000000	100.976375 
2295.000000	100.972210 
2294.000000	100.967053 
2293.000000	100.962265 
2292.000000	100.959970 
2291.000000	100.960991 
2290.000000	100.963560 
2289.000000	100.964766 
2288.000000	100.963721 
2287.000000	100.962051 
2286.000000	100.961372 
2285.000000	100.961434 
2284.000000	100.961607 
2283.000000	100.962643 
2282.000000	100.965567 
2281.000000	100.969624 
2280.000000	100.972840 
2279.000000	100.974193 
2278.000000	100.974172 
2277.000000	100.973473 
2276.000000	100.972377 
2275.000000	100.971556 
2274.000000	100.972235 
2273.000000	100.975175 
2272.000000	100.980131 
2271.000000	100.986303 
2270.000000	100.992481 
2269.000000	100.996857 
2268.000000	100.997934 
2267.000000	100.995937 
2266.000000	100.992936 
2265.000000	100.991279 
2264.000000	100.991618 
2263.000000	100.993160 
2262.000000	100.995070 
2261.000000	100.997112 
2260.000000	100.999283 
2259.000000	101.001360 
2258.000000	101.003034 
2257.000000	101.004283 
2256.000000	101.005462 
2255.000000	101.006997 
2254.000000	101.009004 
2253.000000	101.011196 
2252.000000	101.013164 
2251.000000	101.014753 
2250.000000	101.016115 
2249.000000	101.017482 
2248.000000	101.018964 
2247.000000	101.020522 
2246.000000	101.022035 
2245.000000	101.023387 
2244.000000	101.024574 
2243.000000	101.025672 
2242.000000	101.026776 
2241.000000	101.027940 
2240.000000	101.029156 
2239.000000	101.030394 
2238.000000	101.031624 
2237.000000	101.032819 
2236.000000	101.033957 
2235.000000	101.035033 
2234.000000	101.036052 
2233.000000	101.037034 
2232.000000	101.038003 
2231.000000	101.038982 
2230.000000	101.039989 
2229.000000	101.041038 
2228.000000	101.042114 
2227.000000	101.043170 
2226.000000	101.044174 
2225.000000	101.045171 
2224.000000	101.046260 
2223.000000	101.047420 
2222.000000	101.048425 
2221.000000	101.049057 
2220.000000	101.049398 
2219.000000	101.049820 
2218.000000	101.050650 
2217.000000	101.051878 
2216.000000	101.053156 
2215.000000	101.054125 
2214.000000	101.054652 
2213.000000	101.055020 
2212.000000	101.055879 
2211.000000	101.057678 
2210.000000	101.060129 
2209.000000	101.062333 
2208.000000	101.063737 
2207.000000	101.064660 
2206.000000	101.065780 
2205.000000	101.067291 
2204.000000	101.068864 
2203.000000	101.070219 
2202.000000	101.071213 
2201.000000	101.071685 
2200.000000	101.071623 
2199.000000	101.071422 
2198.000000	101.071660 
2197.000000	101.072534 
2196.000000	101.073838 
2195.000000	101.075401 
2194.000000	101.077189 
2193.000000	101.079059 
2192.000000	101.080834 
2191.000000	101.082539 
2190.000000	101.084244 
2189.000000	101.085889 
2188.000000	101.087391 
2187.000000	101.088791 
2186.000000	101.090199 
2185.000000	101.091662 
2184.000000	101.093150 
2183.000000	101.094632 
2182.000000	101.096092 
2181.000000	101.097502 
2180.000000	101.098828 
2179.000000	101.100057 
2178.000000	101.101198 
2177.000000	101.102235 
2176.000000	101.103191 
2175.000000	101.104103 
2174.000000	101.104980 
2173.000000	101.105795 
2172.000000	101.106510 
2171.000000	101.107120 
2170.000000	101.107663 
2169.000000	101.108179 
2168.000000	101.108683 
2167.000000	101.109179 
2166.000000	101.109647 
2165.000000	101.110053 
2164.000000	101.110368 
2163.000000	101.110582 
2162.000000	101.110729 
2161.000000	101.110888 
2160.000000	101.111142 
2159.000000	101.111521 
2158.000000	101.111975 
2157.000000	101.112399 
2156.000000	101.112683 
2155.000000	101.112734 
2154.000000	101.112529 
2153.000000	101.112132 
2152.000000	101.111634 
2151.000000	101.111093 
2150.000000	101.110523 
2149.000000	101.109890 
2148.000000	101.109152 
2147.000000	101.108293 
2146.000000	101.107329 
2145.000000	101.106286 
2144.000000	101.105200 
2143.000000	101.104108 
2142.000000	101.103038 
2141.000000	101.101999 
2140.000000	101.100980 
2139.000000	101.099970 
2138.000000	101.098970 
2137.000000	101.097977 
2136.000000	101.096989 
2135.000000	101.096000 
2134.000000	101.095004 
2133.000000	101.093987 
2132.000000	101.092934 
2131.000000	101.091842 
2130.000000	101.090721 
2129.000000	101.089580 
2128.000000	101.088411 
2127.000000	101.087171 
2126.000000	101.085764 
2125.000000	101.084112 
2124.000000	101.082235 
2123.000000	101.080290 
2122.000000	101.078535 
2121.000000	101.077162 
2120.000000	101.076056 
2119.000000	101.074903 
2118.000000	101.073572 
2117.000000	101.072257 
2116.000000	101.071282 
2115.000000	101.070785 
2114.000000	101.070556 
2113.000000	101.069958 
2112.000000	101.068250 
2111.000000	101.065281 
2110.000000	101.061746 
2109.000000	101.058651 
2108.000000	101.056658 
2107.000000	101.055795 
2106.000000	101.055818 
2105.000000	101.056506 
2104.000000	101.057449 
2103.000000	101.058128 
2102.000000	101.058183 
2101.000000	101.057629 
2100.000000	101.056910 
2099.000000	101.056483 
2098.000000	101.056317 
2097.000000	101.056025 
2096.000000	101.055505 
2095.000000	101.055024 
2094.000000	101.054489 
2093.000000	101.053353 
2092.000000	101.051532 
2091.000000	101.049632 
2090.000000	101.047854 
2089.000000	101.045507 
2088.000000	101.042354 
2087.000000	101.039707 
2086.000000	101.039022 
2085.000000	101.040134 
2084.000000	101.041566 
2083.000000	101.042303 
2082.000000	101.042637 
2081.000000	101.043189 
2080.000000	101.044198 
2079.000000	101.045676 
2078.000000	101.047396 
2077.000000	101.048723 
2076.000000	101.049194 
2075.000000	101.049005 
2074.000000	101.048736 
2073.000000	101.048957 
2072.000000	101.049755 
2071.000000	101.050866 
2070.000000	101.051967 
2069.000000	101.052912 
2068.000000	101.053693 
2067.000000	101.054370 
2066.000000	101.055074 
2065.000000	101.055917 
2064.000000	101.056899 
2063.000000	101.057908 
2062.000000	101.058833 
2061.000000	101.059661 
2060.000000	101.060473 
2059.000000	101.061354 
2058.000000	101.062311 
2057.000000	101.063288 
2056.000000	101.064292 
2055.000000	101.065444 
2054.000000	101.066833 
2053.000000	101.068408 
2052.000000	101.070036 
2051.000000	101.071624 
2050.000000	101.073109 
2049.000000	101.074417 
2048.000000	101.075536 
2047.000000	101.076556 
2046.000000	101.077601 
2045.000000	101.078732 
2044.000000	101.079908 
2043.000000	101.081005 
2042.000000	101.081833 
2041.000000	101.082244 
2040.000000	101.082301 
2039.000000	101.082440 
2038.000000	101.083147 
2037.000000	101.084573 
2036.000000	101.086203 
2035.000000	101.087352 
2034.000000	101.087838 
2033.000000	101.087836 
2032.000000	101.087398 
2031.000000	101.086466 
2030.000000	101.085228 
2029.000000	101.084122 
2028.000000	101.083512 
2027.000000	101.083525 
2026.000000	101.083765 
2025.000000	101.083278 
2024.000000	101.081413 
2023.000000	101.078649 
2022.000000	101.076314 
2021.000000	101.075139 
2020.000000	101.074691 
2019.000000	101.074434 
2018.000000	101.074672 
2017.000000	101.075627 
2016.000000	101.076395 
2015.000000	101.075905 
2014.000000	101.074247 
2013.000000	101.072400 
2012.000000	101.071164 
2011.000000	101.070985 
2010.000000	101.072263 
2009.000000	101.074708 
2008.000000	101.076533 
2007.000000	101.075604 
2006.000000	101.071303 
2005.000000	101.065062 
2004.000000	101.059377 
2003.000000	101.055909 
2002.000000	101.054671 
2001.000000	101.054127 
2000.000000	101.052626 
1999.000000	101.050002 
1998.000000	101.047239 
1997.000000	101.045232 
1996.000000	101.044282 
1995.000000	101.044442 
1994.000000	101.045481 
1993.000000	101.046975 
1992.000000	101.049076 
1991.000000	101.052879 
1990.000000	101.058621 
1989.000000	101.063737 
1988.000000	101.064727 
1987.000000	101.060782 
1986.000000	101.054086 
1985.000000	101.046805 
1984.000000	101.039595 
1983.000000	101.033667 
1982.000000	101.031623 
1981.000000	101.034010 
1980.000000	101.037514 
1979.000000	101.039248 
1978.000000	101.040893 
1977.000000	101.045832 
1976.000000	101.053435 
1975.000000	101.059348 
1974.000000	101.061105 
1973.000000	101.060959 
1972.000000	101.062821 
1971.000000	101.067781 
1970.000000	101.073240 
1969.000000	101.075841 
1968.000000	101.074623 
1967.000000	101.071493 
1966.000000	101.069011 
1965.000000	101.067931 
1964.000000	101.067279 
1963.000000	101.066325 
1962.000000	101.065641 
1961.000000	101.066370 
1960.000000	101.069082 
1959.000000	101.072965 
1958.000000	101.075933 
1957.000000	101.076203 
1956.000000	101.074287 
1955.000000	101.072837 
1954.000000	101.073313 
1953.000000	101.073910 
1952.000000	101.071781 
1951.000000	101.066727 
1950.000000	101.061487 
1949.000000	101.057859 
1948.000000	101.055046 
1947.000000	101.051837 
1946.000000	101.048033 
1945.000000	101.043512 
1944.000000	101.038147 
1943.000000	101.033671 
1942.000000	101.033135 
1941.000000	101.037336 
1940.000000	101.043504 
1939.000000	101.047557 
1938.000000	101.047988 
1937.000000	101.046277 
1936.000000	101.044661 
1935.000000	101.044103 
1934.000000	101.044049 
1933.000000	101.043645 
1932.000000	101.042457 
1931.000000	101.040756 
1930.000000	101.039405 
1929.000000	101.038717 
1928.000000	101.038332 
1927.000000	101.037458 
1926.000000	101.035567 
1925.000000	101.032748 
1924.000000	101.029530 
1923.000000	101.026979 
1922.000000	101.025800 
1921.000000	101.025631 
1920.000000	101.025398 
1919.000000	101.024542 
1918.000000	101.023581 
1917.000000	101.023196 
1916.000000	101.023496 
1915.000000	101.024059 
1914.000000	101.024269 
1913.000000	101.023823 
1912.000000	101.022782 
1911.000000	101.021472 
1910.000000	101.020274 
1909.000000	101.019330 
1908.000000	101.018678 
1907.000000	101.018283 
1906.000000	101.018022 
1905.000000	101.017693 
1904.000000	101.017100 
1903.000000	101.016328 
1902.000000	101.015557 
1901.000000	101.014800 
1900.000000	101.014011 
1899.000000	101.013253 
1898.000000	101.012606 
1897.000000	101.011973 
1896.000000	101.011212 
1895.000000	101.010515 
1894.000000	101.010184 
1893.000000	101.010172 
1892.000000	101.010154 
1891.000000	101.010014 
1890.000000	101.009945 
1889.000000	101.009963 
1888.000000	101.009846 
1887.000000	101.009475 
1886.000000	101.008895 
1885.000000	101.008254 
1884.000000	101.007705 
1883.000000	101.007340 
1882.000000	101.007117 
1881.000000	101.006895 
1880.000000	101.006604 
1879.000000	101.006275 
1878.000000	101.005953 
1877.000000	101.005641 
1876.000000	101.005325 
1875.000000	101.004998 
1874.000000	101.004658 
1873.000000	101.004307 
1872.000000	101.003955 
1871.000000	101.003617 
1870.000000	101.003309 
1869.000000	101.003026 
1868.000000	101.002749 
1867.000000	101.002470 
1866.000000	101.002195 
1865.000000	101.001936 
1864.000000	101.001701 
1863.000000	101.001494 
1862.000000	101.001311 
1861.000000	101.001133 
1860.000000	101.000940 
1859.000000	101.000727 
1858.000000	101.000502 
1857.000000	101.000267 
1856.000000	101.000021 
1855.000000	100.999754 
1854.000000	100.999462 
1853.000000	100.999147 
1852.000000	100.998813 
1851.000000	100.998451 
1850.000000	100.998059 
1849.000000	100.997653 
1848.000000	100.997249 
1847.000000	100.996864 
1846.000000	100.996506 
1845.000000	100.996167 
1844.000000	100.995823 
1843.000000	100.995464 
1842.000000	100.995090 
1841.000000	100.994693 
1840.000000	100.994267 
1839.000000	100.993818 
1838.000000	100.993366 
1837.000000	100.992926 
1836.000000	100.992490 
1835.000000	100.992042 
1834.000000	100.991572 
1833.000000	100.991082 
1832.000000	100.990584 
1831.000000	100.990091 
1830.000000	100.989612 
1829.000000	100.989142 
1828.000000	100.988678 
1827.000000	100.988215 
1826.000000	100.987722 
1825.000000	100.987220 
1824.000000	100.986763 
1823.000000	100.986392 
1822.000000	100.986109 
1821.000000	100.985855 
1820.000000	100.985570 
1819.000000	100.985214 
1818.000000	100.984912 
1817.000000	100.984762 
1816.000000	100.984455 
1815.000000	100.983699 
1814.000000	100.982518 
1813.000000	100.981297 
1812.000000	100.980412 
1811.000000	100.979948 
1810.000000	100.979997 
1809.000000	100.980223 
1808.000000	100.979831 
1807.000000	100.978573 
1806.000000	100.977118 
1805.000000	100.976052 
1804.000000	100.974994 
1803.000000	100.973701 
1802.000000	100.972743 
1801.000000	100.972739 
1800.000000	100.973252 
1799.000000	100.973392 
1798.000000	100.973483 
1797.000000	100.973750 
1796.000000	100.973749 
1795.000000	100.973153 
1794.000000	100.972328 
1793.000000	100.972251 
1792.000000	100.973011 
1791.000000	100.973855 
1790.000000	100.975023 
1789.000000	100.976213 
1788.000000	100.976598 
1787.000000	100.976191 
1786.000000	100.975755 
1785.000000	100.975554 
1784.000000	100.975183 
1783.000000	100.974845 
1782.000000	100.974799 
1781.000000	100.975148 
1780.000000	100.975879 
1779.000000	100.976585 
1778.000000	100.977105 
1777.000000	100.977278 
1776.000000	100.977329 
1775.000000	100.977483 
1774.000000	100.977627 
1773.000000	100.977922 
1772.000000	100.978578 
1771.000000	100.979448 
1770.000000	100.980664 
1769.000000	100.981989 
1768.000000	100.982857 
1767.000000	100.983156 
1766.000000	100.983319 
1765.000000	100.983763 
1764.000000	100.984370 
1763.000000	100.984904 
1762.000000	100.985216 
1761.000000	100.985402 
1760.000000	100.985733 
1759.000000	100.986164 
1758.000000	100.986523 
1757.000000	100.986761 
1756.000000	100.987063 
1755.000000	100.987550 
1754.000000	100.988117 
1753.000000	100.988559 
1752.000000	100.988868 
1751.000000	100.989068 
1750.000000	100.989155 
1749.000000	100.989308 
1748.000000	100.989690 
1747.000000	100.990306 
1746.000000	100.990894 
1745.000000	100.991324 
1744.000000	100.991667 
1743.000000	100.991940 
1742.000000	100.992167 
1741.000000	100.992421 
1740.000000	100.992670 
1739.000000	100.992796 
1738.000000	100.992897 
1737.000000	100.992971 
1736.000000	100.992877 
1735.000000	100.992752 
1734.000000	100.992601 
1733.000000	100.992393 
1732.000000	100.992171 
1731.000000	100.991910 
1730.000000	100.991590 
1729.000000	100.991197 
1728.000000	100.990727 
1727.000000	100.990191 
1726.000000	100.989614 
1725.000000	100.989005 
1724.000000	100.988374 
1723.000000	100.987725 
1722.000000	100.987055 
1721.000000	100.986362 
1720.000000	100.985641 
1719.000000	100.984891 
1718.000000	100.984111 
1717.000000	100.983277 
1716.000000	100.982362 
1715.000000	100.981367 
1714.000000	100.980309 
1713.000000	100.979191 
1712.000000	100.978020 
1711.000000	100.976818 
1710.000000	100.975607 
1709.000000	100.974398 
1708.000000	100.973192 
1707.000000	100.971981 
1706.000000	100.970759 
1705.000000	100.969529 
1704.000000	100.968310 
1703.000000	100.967116 
1702.000000	100.965942 
1701.000000	100.964787 
1700.000000	100.963642 
1699.000000	100.962507 
1698.000000	100.961414 
1697.000000	100.960348 
1696.000000	100.959285 
1695.000000	100.958230 
1694.000000	100.957184 
1693.000000	100.956133 
1692.000000	100.955049 
1691.000000	100.953922 
1690.000000	100.952764 
1689.000000	100.951592 
1688.000000	100.950432 
1687.000000	100.949302 
1686.000000	100.948223 
1685.000000	100.947226 
1684.000000	100.946315 
1683.000000	100.945457 
1682.000000	100.944648 
1681.000000	100.943861 
1680.000000	100.943066 
1679.000000	100.942262 
1678.000000	100.941464 
1677.000000	100.940682 
1676.000000	100.939915 
1675.000000	100.939173 
1674.000000	100.938477 
1673.000000	100.937849 
1672.000000	100.937287 
1671.000000	100.936782 
1670.000000	100.936324 
1669.000000	100.935891 
1668.000000	100.935462 
1667.000000	100.935025 
1666.000000	100.934561 
1665.000000	100.934061 
1664.000000	100.933536 
1663.000000	100.933008 
1662.000000	100.932481 
1661.000000	100.931945 
1660.000000	100.931408 
1659.000000	100.930879 
1658.000000	100.930359 
1657.000000	100.929850 
1656.000000	100.929353 
1655.000000	100.928866 
1654.000000	100.928401 
1653.000000	100.927940 
1652.000000	100.927470 
1651.000000	100.927101 
1650.000000	100.926867 
1649.000000	100.926739 
1648.000000	100.926707 
1647.000000	100.926759 
1646.000000	100.926860 
1645.000000	100.926989 
1644.000000	100.927143 
1643.000000	100.927305 
1642.000000	100.927450 
1641.000000	100.927576 
1640.000000	100.927709 
1639.000000	100.927876 
1638.000000	100.928104 
1637.000000	100.928417 
1636.000000	100.928820 
1635.000000	100.929287 
1634.000000	100.929805 
1633.000000	100.930375 
1632.000000	100.930976 
1631.000000	100.931586 
1630.000000	100.932192 
1629.000000	100.932792 
1628.000000	100.933397 
1627.000000	100.934020 
1626.000000	100.934670 
1625.000000	100.935353 
1624.000000	100.936084 
1623.000000	100.936879 
1622.000000	100.937732 
1621.000000	100.938629 
1620.000000	100.939554 
1619.000000	100.940502 
1618.000000	100.941470 
1617.000000	100.942446 
1616.000000	100.943423 
1615.000000	100.944426 
1614.000000	100.945463 
1613.000000	100.946506 
1612.000000	100.947530 
1611.000000	100.948534 
1610.000000	100.949529 
1609.000000	100.950495 
1608.000000	100.951388 
1607.000000	100.952216 
1606.000000	100.953001 
1605.000000	100.953758 
1604.000000	100.954499 
1603.000000	100.955208 
1602.000000	100.955850 
1601.000000	100.956436 
1600.000000	100.956990 
1599.000000	100.957513 
1598.000000	100.958002 
1597.000000	100.958454 
1596.000000	100.958860 
1595.000000	100.959209 
1594.000000	100.959484 
1593.000000	100.959678 
1592.000000	100.959803 
1591.000000	100.959878 
1590.000000	100.959913 
1589.000000	100.959916 
1588.000000	100.959879 
1587.000000	100.959787 
1586.000000	100.959616 
1585.000000	100.959350 
1584.000000	100.958989 
1583.000000	100.958557 
1582.000000	100.958074 
1581.000000	100.957535 
1580.000000	100.956932 
1579.000000	100.956278 
1578.000000	100.955584 
1577.000000	100.954855 
1576.000000	100.954088 
1575.000000	100.953286 
1574.000000	100.952462 
1573.000000	100.951608 
1572.000000	100.950704 
1571.000000	100.949755 
1570.000000	100.948794 
1569.000000	100.947839 
1568.000000	100.946900 
1567.000000	100.945986 
1566.000000	100.945087 
1565.000000	100.944191 
1564.000000	100.943296 
1563.000000	100.942401 
1562.000000	100.941491 
1561.000000	100.940563 
1560.000000	100.939684 
1559.000000	100.938902 
1558.000000	100.938119 
1557.000000	100.937324 
1556.000000	100.936561 
1555.000000	100.935835 
1554.000000	100.935130 
1553.000000	100.934443 
1552.000000	100.933771 
1551.000000	100.933101 
1550.000000	100.932420 
1549.000000	100.931731 
1548.000000	100.931037 
1547.000000	100.930334 
1546.000000	100.929640 
1545.000000	100.929004 
1544.000000	100.928478 
1543.000000	100.928080 
1542.000000	100.927803 
1541.000000	100.927619 
1540.000000	100.927479 
1539.000000	100.927325 
1538.000000	100.927168 
1537.000000	100.927041 
1536.000000	100.926946 
1535.000000	100.926881 
1534.000000	100.926856 
1533.000000	100.926877 
1532.000000	100.926943 
1531.000000	100.927058 
1530.000000	100.927235 
1529.000000	100.927477 
1528.000000	100.927780 
1527.000000	100.928136 
1526.000000	100.928536 
1525.000000	100.928963 
1524.000000	100.929404 
1523.000000	100.929853 
1522.000000	100.930306 
1521.000000	100.930744 
1520.000000	100.931154 
1519.000000	100.931549 
1518.000000	100.931937 
1517.000000	100.932316 
1516.000000	100.932703 
1515.000000	100.933133 
1514.000000	100.933607 
1513.000000	100.934095 
1512.000000	100.934580 
1511.000000	100.935041 
1510.000000	100.935461 
1509.000000	100.935823 
1508.000000	100.936289 
1507.000000	100.937112 
1506.000000	100.937957 
1505.000000	100.938621 
1504.000000	100.939554 
1503.000000	100.940578 
1502.000000	100.941306 
1501.000000	100.941661 
1500.000000	100.941745 
1499.000000	100.941660 
1498.000000	100.941774 
1497.000000	100.942908 
1496.000000	100.944923 
1495.000000	100.946909 
1494.000000	100.948717 
1493.000000	100.950207 
1492.000000	100.951164 
1491.000000	100.951986 
1490.000000	100.953436 
1489.000000	100.955359 
1488.000000	100.956831 
1487.000000	100.957692 
1486.000000	100.958574 
1485.000000	100.959342 
1484.000000	100.959718 
1483.000000	100.959776 
1482.000000	100.959831 
1481.000000	100.960203 
1480.000000	100.960734 
1479.000000	100.961235 
1478.000000	100.961761 
1477.000000	100.962619 
1476.000000	100.963796 
1475.000000	100.965121 
1474.000000	100.966501 
1473.000000	100.967848 
1472.000000	100.968904 
1471.000000	100.969715 
1470.000000	100.970614 
1469.000000	100.971576 
1468.000000	100.972480 
1467.000000	100.973336 
1466.000000	100.974196 
1465.000000	100.975035 
1464.000000	100.975809 
1463.000000	100.976532 
1462.000000	100.977204 
1461.000000	100.977831 
1460.000000	100.978438 
1459.000000	100.979061 
1458.000000	100.979717 
1457.000000	100.980380 
1456.000000	100.980988 
1455.000000	100.981515 
1454.000000	100.981962 
1453.000000	100.982346 
1452.000000	100.982687 
1451.000000	100.982983 
1450.000000	100.983226 
1449.000000	100.983414 
1448.000000	100.983548 
1447.000000	100.983637 
1446.000000	100.983712 
1445.000000	100.983796 
1444.000000	100.983887 
1443.000000	100.983964 
1442.000000	100.984008 
1441.000000	100.984012 
1440.000000	100.983977 
1439.000000	100.983894 
1438.000000	100.983757 
1437.000000	100.983581 
1436.000000	100.983378 
1435.000000	100.983145 
1434.000000	100.982878 
1433.000000	100.982576 
1432.000000	100.982241 
1431.000000	100.981884 
1430.000000	100.981522 
1429.000000	100.981173 
1428.000000	100.980840 
1427.000000	100.980516 
1426.000000	100.980199 
1425.000000	100.979903 
1424.000000	100.979638 
1423.000000	100.979393 
1422.000000	100.979150 
1421.000000	100.978909 
1420.000000	100.978688 
1419.000000	100.978500 
1418.000000	100.978344 
1417.000000	100.978217 
1416.000000	100.978111 
1415.000000	100.978010 
1414.000000	100.977905 
1413.000000	100.977793 
1412.000000	100.977671 
1411.000000	100.977537 
1410.000000	100.977390 
1409.000000	100.977241 
1408.000000	100.977108 
1407.000000	100.976994 
1406.000000	100.976882 
1405.000000	100.976766 
1404.000000	100.976643 
1403.000000	100.976502 
1402.000000	100.976332 
1401.000000	100.976127 
1400.000000	100.975931 
1399.000000	100.975816 
1398.000000	100.975827 
1397.000000	100.975962 
1396.000000	100.976194 
1395.000000	100.976440 
1394.000000	100.976550 
1393.000000	100.976528 
1392.000000	100.976567 
1391.000000	100.976649 
1390.000000	100.976612 
1389.000000	100.976462 
1388.000000	100.976448 
1387.000000	100.976713 
1386.000000	100.977063 
1385.000000	100.977292 
1384.000000	100.977428 
1383.000000	100.977532 
1382.000000	100.977692 
1381.000000	100.977987 
1380.000000	100.978430 
1379.000000	100.979015 
1378.000000	100.979612 
1377.000000	100.980085 
1376.000000	100.980552 
1375.000000	100.981368 
1374.000000	100.982301 
1373.000000	100.982551 
1372.000000	100.981816 
1371.000000	100.980500 
1370.000000	100.979224 
1369.000000	100.978641 
1368.000000	100.979319 
1367.000000	100.980939 
1366.000000	100.982415 
1365.000000	100.982783 
1364.000000	100.982189 
1363.000000	100.981821 
1362.000000	100.982577 
1361.000000	100.984260 
1360.000000	100.986065 
1359.000000	100.987417 
1358.000000	100.988437 
1357.000000	100.989766 
1356.000000	100.991807 
1355.000000	100.994056 
1354.000000	100.995811 
1353.000000	100.997329 
1352.000000	100.999363 
1351.000000	101.002251 
1350.000000	101.004935 
1349.000000	101.005941 
1348.000000	101.005433 
1347.000000	101.004707 
1346.000000	101.004694 
1345.000000	101.005053 
1344.000000	101.005163 
1343.000000	101.004859 
1342.000000	101.004419 
1341.000000	101.004353 
1340.000000	101.005277 
1339.000000	101.007324 
1338.000000	101.009955 
1337.000000	101.012505 
1336.000000	101.014535 
1335.000000	101.015975 
1334.000000	101.017136 
1333.000000	101.018354 
1332.000000	101.019536 
1331.000000	101.020168 
1330.000000	101.019928 
1329.000000	101.019287 
1328.000000	101.019125 
1327.000000	101.019771 
1326.000000	101.020711 
1325.000000	101.021390 
1324.000000	101.021901 
1323.000000	101.022502 
1322.000000	101.023299 
1321.000000	101.024366 
1320.000000	101.025702 
1319.000000	101.026908 
1318.000000	101.027494 
1317.000000	101.027489 
1316.000000	101.027285 
1315.000000	101.026985 
1314.000000	101.026391 
1313.000000	101.025620 
1312.000000	101.025175 
1311.000000	101.025307 
1310.000000	101.025752 
1309.000000	101.026168 
1308.000000	101.026460 
1307.000000	101.026646 
1306.000000	101.026662 
1305.000000	101.026505 
1304.000000	101.026292 
1303.000000	101.026039 
1302.000000	101.025709 
1301.000000	101.025475 
1300.000000	101.025692 
1299.000000	101.026404 
1298.000000	101.027001 
1297.000000	101.026771 
1296.000000	101.025620 
1295.000000	101.024074 
1294.000000	101.022713 
1293.000000	101.021681 
1292.000000	101.020890 
1291.000000	101.020247 
1290.000000	101.019675 
1289.000000	101.019117 
1288.000000	101.018616 
1287.000000	101.018270 
1286.000000	101.018078 
1285.000000	101.017880 
1284.000000	101.017471 
1283.000000	101.016741 
1282.000000	101.015740 
1281.000000	101.014648 
1280.000000	101.013637 
1279.000000	101.012692 
1278.000000	101.011612 
1277.000000	101.010287 
1276.000000	101.008876 
1275.000000	101.007677 
1274.000000	101.006828 
1273.000000	101.006241 
1272.000000	101.005704 
1271.000000	101.004996 
1270.000000	101.003991 
1269.000000	101.002732 
1268.000000	101.001351 
1267.000000	100.999904 
1266.000000	100.998445 
1265.000000	100.997237 
1264.000000	100.996598 
1263.000000	100.996449 
1262.000000	100.996191 
1261.000000	100.995202 
1260.000000	100.993350 
1259.000000	100.990981 
1258.000000	100.988566 
1257.000000	100.986345 
1256.000000	100.984247 
1255.000000	100.982217 
1254.000000	100.980578 
1253.000000	100.979728 
1252.000000	100.979411 
1251.000000	100.978723 
1250.000000	100.977264 
1249.000000	100.975726 
1248.000000	100.974814 
1247.000000	100.973928 
1246.000000	100.971870 
1245.000000	100.968425 
1244.000000	100.964558 
1243.000000	100.961241 
1242.000000	100.958528 
1241.000000	100.956201 
1240.000000	100.954440 
1239.000000	100.953395 
1238.000000	100.952682 
1237.000000	100.951841 
1236.000000	100.950899 
1235.000000	100.950007 
1234.000000	100.948958 
1233.000000	100.947449 
1232.000000	100.945569 
1231.000000	100.943701 
1230.000000	100.942068 
1229.000000	100.940588 
1228.000000	100.939085 
1227.000000	100.937491 
1226.000000	100.935918 
1225.000000	100.934546 
1224.000000	100.933404 
1223.000000	100.932265 
1222.000000	100.930904 
1221.000000	100.929399 
1220.000000	100.928044 
1219.000000	100.926961 
1218.000000	100.925965 
1217.000000	100.924797 
1216.000000	100.923367 
1215.000000	100.921730 
1214.000000	100.920027 
1213.000000	100.918475 
1212.000000	100.917230 
1211.000000	100.916238 
1210.000000	100.915249 
1209.000000	100.914059 
1208.000000	100.912698 
1207.000000	100.911365 
1206.000000	100.910241 
1205.000000	100.909361 
1204.000000	100.908653 
1203.000000	100.908024 
1202.000000	100.907422 
1201.000000	100.906876 
1200.000000	100.906432 
1199.000000	100.906055 
1198.000000	100.905639 
1197.000000	100.905075 
1196.000000	100.904321 
1195.000000	100.903420 
1194.000000	100.902477 
1193.000000	100.901597 
1192.000000	100.900831 
1191.000000	100.900168 
1190.000000	100.899558 
1189.000000	100.898981 
1188.000000	100.898407 
1187.000000	100.897819 
1186.000000	100.897245 
1185.000000	100.896684 
1184.000000	100.896083 
1183.000000	100.895410 
1182.000000	100.894697 
1181.000000	100.894011 
1180.000000	100.893398 
1179.000000	100.892856 
1178.000000	100.892319 
1177.000000	100.891746 
1176.000000	100.891139 
1175.000000	100.890498 
1174.000000	100.889810 
1173.000000	100.889072 
1172.000000	100.888334 
1171.000000	100.887719 
1170.000000	100.887374 
1169.000000	100.887370 
1168.000000	100.887653 
1167.000000	100.888015 
1166.000000	100.888167 
1165.000000	100.888164 
1164.000000	100.888457 
1163.000000	100.889050 
1162.000000	100.889046 
1161.000000	100.887569 
1160.000000	100.884851 
1159.000000	100.882116 
1158.000000	100.880373 
1157.000000	100.879590 
1156.000000	100.878848 
1155.000000	100.877129 
1154.000000	100.874297 
1153.000000	100.871348 
1152.000000	100.869306 
1151.000000	100.868226 
1150.000000	100.868036 
1149.000000	100.869485 
1148.000000	100.872504 
1147.000000	100.874231 
1146.000000	100.871243 
1145.000000	100.864173 
1144.000000	100.858033 
1143.000000	100.857071 
1142.000000	100.860753 
1141.000000	100.864888 
1140.000000	100.865138 
1139.000000	100.859815 
1138.000000	100.851652 
1137.000000	100.846875 
1136.000000	100.849434 
1135.000000	100.855959 
1134.000000	100.859365 
1133.000000	100.857931 
1132.000000	100.856938 
1131.000000	100.860669 
1130.000000	100.866380 
1129.000000	100.868266 
1128.000000	100.863947 
1127.000000	100.854394 
1126.000000	100.840863 
1125.000000	100.824909 
1124.000000	100.809208 
1123.000000	100.796077 
1122.000000	100.786671 
1121.000000	100.782675 
1120.000000	100.785854 
1119.000000	100.793855 
1118.000000	100.799765 
1117.000000	100.798928 
1116.000000	100.793252 
1115.000000	100.786011 
1114.000000	100.775438 
1113.000000	100.757640 
1112.000000	100.733524 
1111.000000	100.708305 
1110.000000	100.684847 
1109.000000	100.662178 
1108.000000	100.640398 
1107.000000	100.622698 
1106.000000	100.611421 
1105.000000	100.604303 
1104.000000	100.595697 
1103.000000	100.580523 
1102.000000	100.557690 
1101.000000	100.531538 
1100.000000	100.508171 
1099.000000	100.488637 
1098.000000	100.467525 
1097.000000	100.441221 
1096.000000	100.416338 
1095.000000	100.403866 
1094.000000	100.404851 
1093.000000	100.406741 
1092.000000	100.396959 
1091.000000	100.377359 
1090.000000	100.361000 
1089.000000	100.356292 
1088.000000	100.358127 
1087.000000	100.354057 
1086.000000	100.337496 
1085.000000	100.314074 
1084.000000	100.295608 
1083.000000	100.289001 
1082.000000	100.291218 
1081.000000	100.294195 
1080.000000	100.294021 
1079.000000	100.294067 
1078.000000	100.299297 
1077.000000	100.310125 
1076.000000	100.323200 
1075.000000	100.336460 
1074.000000	100.350548 
1073.000000	100.364982 
1072.000000	100.375980 
1071.000000	100.380721 
1070.000000	100.382835 
1069.000000	100.390494 
1068.000000	100.408200 
1067.000000	100.432227 
1066.000000	100.454723 
1065.000000	100.470920 
1064.000000	100.481117 
1063.000000	100.487969 
1062.000000	100.494641 
1061.000000	100.504341 
1060.000000	100.518306 
1059.000000	100.533554 
1058.000000	100.544988 
1057.000000	100.550974 
1056.000000	100.555555 
1055.000000	100.563922 
1054.000000	100.575888 
1053.000000	100.585120 
1052.000000	100.586037 
1051.000000	100.581392 
1050.000000	100.580983 
1049.000000	100.591139 
1048.000000	100.607816 
1047.000000	100.621974 
1046.000000	100.629709 
1045.000000	100.634327 
1044.000000	100.640217 
1043.000000	100.648193 
1042.000000	100.656595 
1041.000000	100.663825 
1040.000000	100.669023 
1039.000000	100.672467 
1038.000000	100.676041 
1037.000000	100.681844 
1036.000000	100.689807 
1035.000000	100.697979 
1034.000000	100.705035 
1033.000000	100.711363 
1032.000000	100.717754 
1031.000000	100.724131 
1030.000000	100.729968 
1029.000000	100.735313 
1028.000000	100.740782 
1027.000000	100.746652 
1026.000000	100.752638 
1025.000000	100.758563 
1024.000000	100.764540 
1023.000000	100.770416 
1022.000000	100.775796 
1021.000000	100.780803 
1020.000000	100.786064 
1019.000000	100.791696 
1018.000000	100.796982 
1017.000000	100.801307 
1016.000000	100.804773 
1015.000000	100.807665 
1014.000000	100.810203 
1013.000000	100.813032 
1012.000000	100.817092 
1011.000000	100.822482 
1010.000000	100.827891 
1009.000000	100.832012 
1008.000000	100.835345 
1007.000000	100.839580 
1006.000000	100.845368 
1005.000000	100.851640 
1004.000000	100.856935 
1003.000000	100.860535 
1002.000000	100.862376 
1001.000000	100.862798 
1000.000000	100.862901 
999.000000	 100.864371 
998.000000	 100.868252 
997.000000	 100.873980 
996.000000	 100.879618 
995.000000	 100.883295 
994.000000	 100.884592 
993.000000	 100.884961 
992.000000	 100.886482 
991.000000	 100.889529 
990.000000	 100.891994 
989.000000	 100.891468 
988.000000	 100.887944 
987.000000	 100.884092 
986.000000	 100.882574 
985.000000	 100.883519 
984.000000	 100.885100 
983.000000	 100.885811 
982.000000	 100.885752 
981.000000	 100.885779 
980.000000	 100.886070 
979.000000	 100.885864 
978.000000	 100.884428 
977.000000	 100.882117 
976.000000	 100.880534 
975.000000	 100.881489 
974.000000	 100.885513 
973.000000	 100.891108 
972.000000	 100.895686 
971.000000	 100.897567 
970.000000	 100.896723 
969.000000	 100.893783 
968.000000	 100.889052 
967.000000	 100.883021 
966.000000	 100.877165 
965.000000	 100.872981 
964.000000	 100.870233 
963.000000	 100.867230 
962.000000	 100.863095 
961.000000	 100.858925 
960.000000	 100.856327 
959.000000	 100.855811 
958.000000	 100.857230 
957.000000	 100.860609 
956.000000	 100.865168 
955.000000	 100.868404 
954.000000	 100.868056 
953.000000	 100.864670 
952.000000	 100.861140 
951.000000	 100.859176 
950.000000	 100.857112 
949.000000	 100.852059 
948.000000	 100.843135 
947.000000	 100.832308 
946.000000	 100.822937 
945.000000	 100.817302 
944.000000	 100.815191 
943.000000	 100.814355 
942.000000	 100.812689 
941.000000	 100.810467 
940.000000	 100.809715 
939.000000	 100.811448 
938.000000	 100.814397 
937.000000	 100.816441 
936.000000	 100.816435 
935.000000	 100.814290 
934.000000	 100.810375 
933.000000	 100.805627 
932.000000	 100.801527 
931.000000	 100.798945 
930.000000	 100.797444 
929.000000	 100.796419 
928.000000	 100.796290 
927.000000	 100.797702 
926.000000	 100.800097 
925.000000	 100.801983 
924.000000	 100.802551 
923.000000	 100.802354 
922.000000	 100.802368 
921.000000	 100.803100 
920.000000	 100.804785 
919.000000	 100.807737 
918.000000	 100.812051 
917.000000	 100.817273 
916.000000	 100.822478 
915.000000	 100.826463 
914.000000	 100.828039 
913.000000	 100.826817 
912.000000	 100.824021 
911.000000	 100.822218 
910.000000	 100.823205 
909.000000	 100.826483 
908.000000	 100.830042 
907.000000	 100.832478 
906.000000	 100.834213 
905.000000	 100.836397 
904.000000	 100.839370 
903.000000	 100.842586 
902.000000	 100.845523 
901.000000	 100.848133 
900.000000	 100.850496 
899.000000	 100.852552 
898.000000	 100.854283 
897.000000	 100.855833 
896.000000	 100.857380 
895.000000	 100.859055 
894.000000	 100.860944 
893.000000	 100.863058 
892.000000	 100.865264 
891.000000	 100.867396 
890.000000	 100.869408 
889.000000	 100.871361 
888.000000	 100.873309 
887.000000	 100.875264 
886.000000	 100.877223 
885.000000	 100.879194 
884.000000	 100.881169 
883.000000	 100.883135 
882.000000	 100.885090 
881.000000	 100.887042 
880.000000	 100.889010 
879.000000	 100.891007 
878.000000	 100.893036 
877.000000	 100.895098 
876.000000	 100.897186 
875.000000	 100.899285 
874.000000	 100.901368 
873.000000	 100.903419 
872.000000	 100.905440 
871.000000	 100.907431 
870.000000	 100.909392 
869.000000	 100.911318 
868.000000	 100.913192 
867.000000	 100.915030 
866.000000	 100.916871 
865.000000	 100.918696 
864.000000	 100.920463 
863.000000	 100.922182 
862.000000	 100.923885 
861.000000	 100.925600 
860.000000	 100.927332 
859.000000	 100.929083 
858.000000	 100.930860 
857.000000	 100.932619 
856.000000	 100.934273 
855.000000	 100.935836 
854.000000	 100.937487 
853.000000	 100.939374 
852.000000	 100.941385 
851.000000	 100.943202 
850.000000	 100.944660 
849.000000	 100.945899 
848.000000	 100.947169 
847.000000	 100.948628 
846.000000	 100.950351 
845.000000	 100.952347 
844.000000	 100.954431 
843.000000	 100.956259 
842.000000	 100.957688 
841.000000	 100.958998 
840.000000	 100.960577 
839.000000	 100.962468 
838.000000	 100.964420 
837.000000	 100.966192 
836.000000	 100.967564 
835.000000	 100.968236 
834.000000	 100.968087 
833.000000	 100.967511 
832.000000	 100.967288 
831.000000	 100.967872 
830.000000	 100.969069 
829.000000	 100.970272 
828.000000	 100.970945 
827.000000	 100.971089 
826.000000	 100.971443 
825.000000	 100.972951 
824.000000	 100.975833 
823.000000	 100.979022 
822.000000	 100.981078 
821.000000	 100.981794 
820.000000	 100.982259 
819.000000	 100.983489 
818.000000	 100.985090 
817.000000	 100.985861 
816.000000	 100.985232 
815.000000	 100.983690 
814.000000	 100.982245 
813.000000	 100.981702 
812.000000	 100.982427 
811.000000	 100.984301 
810.000000	 100.986662 
809.000000	 100.988607 
808.000000	 100.989626 
807.000000	 100.989828 
806.000000	 100.989589 
805.000000	 100.989187 
804.000000	 100.988961 
803.000000	 100.989494 
802.000000	 100.991173 
801.000000	 100.993589 
800.000000	 100.995787 
799.000000	 100.997321 
798.000000	 100.998758 
797.000000	 101.000822 
796.000000	 101.003371 
795.000000	 101.005771 
794.000000	 101.008139 
793.000000	 101.011293 
792.000000	 101.015100 
791.000000	 101.017663 
790.000000	 101.017145 
789.000000	 101.013883 
788.000000	 101.010079 
787.000000	 101.007540 
786.000000	 101.006874 
785.000000	 101.008743 
784.000000	 101.014024 
783.000000	 101.022233 
782.000000	 101.030842 
781.000000	 101.037535 
780.000000	 101.042118 
779.000000	 101.045139 
778.000000	 101.046599 
777.000000	 101.046444 
776.000000	 101.045547 
775.000000	 101.045490 
774.000000	 101.047226 
773.000000	 101.050579 
772.000000	 101.054385 
771.000000	 101.056647 
770.000000	 101.055644 
769.000000	 101.051549 
768.000000	 101.046198 
767.000000	 101.040998 
766.000000	 101.036158 
765.000000	 101.032242 
764.000000	 101.030797 
763.000000	 101.032323 
762.000000	 101.035053 
761.000000	 101.037231 
760.000000	 101.039578 
759.000000	 101.043598 
758.000000	 101.048293 
757.000000	 101.050887 
756.000000	 101.050616 
755.000000	 101.049605 
754.000000	 101.049730 
753.000000	 101.050539 
752.000000	 101.051041 
751.000000	 101.051353 
750.000000	 101.051267 
749.000000	 101.049023 
748.000000	 101.043358 
747.000000	 101.035860 
746.000000	 101.029870 
745.000000	 101.027174 
744.000000	 101.027201 
743.000000	 101.028706 
742.000000	 101.030574 
741.000000	 101.031029 
740.000000	 101.027896 
739.000000	 101.020928 
738.000000	 101.013466 
737.000000	 101.010179 
736.000000	 101.013035 
735.000000	 101.019944 
734.000000	 101.026397 
733.000000	 101.029499 
732.000000	 101.030150 
731.000000	 101.031164 
730.000000	 101.034048 
729.000000	 101.038323 
728.000000	 101.043542 
727.000000	 101.049945 
726.000000	 101.056590 
725.000000	 101.060879 
724.000000	 101.061017 
723.000000	 101.058366 
722.000000	 101.055995 
721.000000	 101.055385 
720.000000	 101.056137 
719.000000	 101.057700 
718.000000	 101.059848 
717.000000	 101.061834 
716.000000	 101.062602 
715.000000	 101.062272 
714.000000	 101.062424 
713.000000	 101.064331 
712.000000	 101.067547 
711.000000	 101.071095 
710.000000	 101.075186 
709.000000	 101.079737 
708.000000	 101.084091 
707.000000	 101.087493 
706.000000	 101.089784 
705.000000	 101.091767 
704.000000	 101.094539 
703.000000	 101.098601 
702.000000	 101.103579 
701.000000	 101.108670 
700.000000	 101.113565 
699.000000	 101.118789 
698.000000	 101.124723 
697.000000	 101.130707 
696.000000	 101.135580 
695.000000	 101.139292 
694.000000	 101.142635 
693.000000	 101.145960 
692.000000	 101.148936 
691.000000	 101.151605 
690.000000	 101.154892 
689.000000	 101.159722 
688.000000	 101.165991 
687.000000	 101.172638 
686.000000	 101.178415 
685.000000	 101.182410 
684.000000	 101.184134 
683.000000	 101.184245 
682.000000	 101.184515 
681.000000	 101.186304 
680.000000	 101.189303 
679.000000	 101.192298 
678.000000	 101.194775 
677.000000	 101.197176 
676.000000	 101.199911 
675.000000	 101.202881 
674.000000	 101.205896 
673.000000	 101.209118 
672.000000	 101.212882 
671.000000	 101.217856 
670.000000	 101.224718 
669.000000	 101.233691 
668.000000	 101.240934 
667.000000	 101.242167 
666.000000	 101.239019 
665.000000	 101.235669 
664.000000	 101.233722 
663.000000	 101.233211 
662.000000	 101.233829 
661.000000	 101.235317 
660.000000	 101.237243 
659.000000	 101.239354 
658.000000	 101.241281 
657.000000	 101.243672 
656.000000	 101.245519 
655.000000	 101.248111 
654.000000	 101.245734 
653.000000	 101.244363 
652.000000	 101.245028 
651.000000	 101.244086 
650.000000	 101.243492 

